 Filename:   3DC_PST_01.DAT      

 3D converging nozzle (3Dc)
 Static pressure 
 Wall pressure taps

 Dinamic pressure                1000.18 Pa
 Acquisition time                   3.00 s
 Acquisition frequency            10000. Hz
 Number of samples                 30000
 Barometric pressure               971.8 mbar
 Air temperature (start)            28.5 C   
 Re 1m /10.E6                     2.5491
 Air density (start)              1.1182 kg/m**3 
 Air kin. viscosity (start)  0.16592E-04 m**2/s

 Date             3-MAY-90
 Time            10:33:59

  x [mm]    z [mm]    Pstat[Pa]  


     0.000  -350.000   80.9764
     0.000  -300.000   78.5750
     0.000  -250.000   77.7286
     0.000  -200.000   74.9805
     0.000  -150.000   71.3505
     0.000  -100.000   70.7400
     0.000   -50.000   70.2802
     0.000     0.000   71.4188
     0.000    50.000   72.2516
     0.000   100.000   73.9781
     0.000   150.000   74.6287
     0.000   200.000   76.8737
     0.000   250.000   80.1004
     0.000   300.000   83.3667
     0.000   350.000   86.6946

    25.000  -350.000   82.7157
    25.000  -300.000   80.3711
    25.000  -250.000   78.0084
    25.000  -200.000   74.5594
    25.000  -150.000   71.4478
    25.000  -100.000   70.4224
    25.000   -50.000   69.4823
    25.000     0.000   70.3828
    25.000    50.000   71.2717
    25.000   100.000   73.3166
    25.000   150.000   74.7380
    25.000   200.000   77.4074
    25.000   250.000   80.2281
    25.000   300.000   84.1483
    25.000   350.000   87.4284

    50.000  -350.000   84.4846
    50.000  -300.000   80.7246
    50.000  -250.000   78.1232
    50.000  -200.000   74.7340
    50.000  -150.000   70.3665
    50.000  -100.000   69.1308
    50.000   -50.000   68.0007
    50.000     0.000   68.9971
    50.000    50.000   70.1795
    50.000   100.000   72.1438
    50.000   150.000   73.8299
    50.000   200.000   77.0629
    50.000   250.000   80.2130
    50.000   300.000   84.7626
    50.000   350.000   88.0800

    75.000  -350.000   86.5946
    75.000  -300.000   82.5429
    75.000  -250.000   78.2406
    75.000  -200.000   74.3249
    75.000  -150.000   69.3271
    75.000  -100.000   68.3029
    75.000   -50.000   67.2501
    75.000     0.000   68.6822
    75.000    50.000   69.8085
    75.000   100.000   72.0021
    75.000   150.000   74.0179
    75.000   200.000   77.8477
    75.000   250.000   81.3543
    75.000   300.000   86.4338
    75.000   350.000   89.6328

   100.000  -350.000   88.3241
   100.000  -300.000   82.4927
   100.000  -250.000   78.6870
   100.000  -200.000   74.3623
   100.000  -150.000   68.8411
   100.000  -100.000   67.0342
   100.000   -50.000   66.1836
   100.000     0.000   66.0432
   100.000    50.000   67.5684
   100.000   100.000   69.7126
   100.000   150.000   71.8478
   100.000   200.000   76.0611
   100.000   250.000   80.1828
   100.000   300.000   86.3012
   100.000   350.000   90.5176

   125.000  -350.000   90.5567
   125.000  -300.000   84.7856
   125.000  -250.000   80.3367
   125.000  -200.000   74.0222
   125.000  -150.000   68.6287
   125.000  -100.000   66.5100
   125.000   -50.000   65.0055
   125.000     0.000   65.6997
   125.000    50.000   67.0891
   125.000   100.000   69.3142
   125.000   150.000   72.0339
   125.000   200.000   76.7098
   125.000   250.000   81.2998
   125.000   300.000   86.9587
   125.000   350.000   92.2261

   150.000  -350.000   93.5387
   150.000  -300.000   86.9863
   150.000  -250.000   81.5638
   150.000  -200.000   75.1835
   150.000  -150.000   68.8665
   150.000  -100.000   65.8810
   150.000   -50.000   64.2185
   150.000     0.000   64.3051
   150.000    50.000   66.2365
   150.000   100.000   68.7949
   150.000   150.000   72.0485
   150.000   200.000   77.1376
   150.000   250.000   82.6860
   150.000   300.000   89.4680
   150.000   350.000   96.0378

   175.000  -350.000   96.8341
   175.000  -300.000   88.9498
   175.000  -250.000   82.2118
   175.000  -200.000   75.1771
   175.000  -150.000   68.6988
   175.000  -100.000   65.2884
   175.000   -50.000   63.5914
   175.000     0.000   63.6141
   175.000    50.000   65.4229
   175.000   100.000   68.2702
   175.000   150.000   71.7410
   175.000   200.000   77.2597
   175.000   250.000   84.2890
   175.000   300.000   92.7138
   175.000   350.000  100.3136

   200.000  -350.000  101.4933
   200.000  -300.000   92.3881
   200.000  -250.000   84.5579
   200.000  -200.000   76.3149
   200.000  -150.000   68.7591
   200.000  -100.000   65.1022
   200.000   -50.000   63.1276
   200.000     0.000   63.5007
   200.000    50.000   64.9410
   200.000   100.000   68.4389
   200.000   150.000   72.4041
   200.000   200.000   79.4375
   200.000   250.000   86.3842
   200.000   300.000   95.1823
   200.000   350.000  104.4523

   225.000  -350.000  105.5071
   225.000  -300.000   95.4681
   225.000  -250.000   85.7951
   225.000  -200.000   76.9098
   225.000  -150.000   68.6686
   225.000  -100.000   64.9758
   225.000   -50.000   61.9772
   225.000     0.000   62.3936
   225.000    50.000   63.9967
   225.000   100.000   67.9727
   225.000   150.000   71.7939
   225.000   200.000   79.7154
   225.000   250.000   87.7714
   225.000   300.000   97.7180
   225.000   350.000  107.8739

   250.000  -350.000  111.3761
   250.000  -300.000   99.1849
   250.000  -250.000   88.8762
   250.000  -200.000   79.2875
   250.000  -150.000   69.8058
   250.000  -100.000   65.3152
   250.000   -50.000   62.3838
   250.000     0.000   62.4035
   250.000    50.000   64.1656
   250.000   100.000   68.0021
   250.000   150.000   73.3127
   250.000   200.000   81.6206
   250.000   250.000   90.7700
   250.000   300.000  102.2906
   250.000   350.000  113.4513

   275.000  -350.000  117.9406
   275.000  -300.000  103.8790
   275.000  -250.000   92.2026
   275.000  -200.000   81.6034
   275.000  -150.000   71.0309
   275.000  -100.000   65.6089
   275.000   -50.000   62.6641
   275.000     0.000   62.5976
   275.000    50.000   64.2124
   275.000   100.000   68.2477
   275.000   150.000   73.7007
   275.000   200.000   82.9166
   275.000   250.000   92.9034
   275.000   300.000  105.1843
   275.000   350.000  118.2044

   300.000  -350.000  123.9413
   300.000  -300.000  107.6426
   300.000  -250.000   93.8626
   300.000  -200.000   81.8853
   300.000  -150.000   71.4218
   300.000  -100.000   65.0774
   300.000   -50.000   61.7113
   300.000     0.000   60.9129
   300.000    50.000   63.5187
   300.000   100.000   68.1185
   300.000   150.000   74.0138
   300.000   200.000   83.7848
   300.000   250.000   94.7508
   300.000   300.000  109.3072
   300.000   350.000  124.1860

   325.000  -350.000  128.8002
   325.000  -300.000  112.0374
   325.000  -250.000   96.9421
   325.000  -200.000   83.4861
   325.000  -150.000   71.8767
   325.000  -100.000   65.3404
   325.000   -50.000   60.8202
   325.000     0.000   60.5206
   325.000    50.000   63.1639
   325.000   100.000   68.0397
   325.000   150.000   74.6881
   325.000   200.000   85.3043
   325.000   250.000   98.1030
   325.000   300.000  114.0241
   325.000   350.000  131.0949

   350.000  -350.000  133.9794
   350.000  -300.000  115.6303
   350.000  -250.000   99.6708
   350.000  -200.000   84.8909
   350.000  -150.000   72.2352
   350.000  -100.000   64.9692
   350.000   -50.000   59.7713
   350.000     0.000   59.6036
   350.000    50.000   61.1179
   350.000   100.000   67.2607
   350.000   150.000   74.2058
   350.000   200.000   87.0682
   350.000   250.000  100.8561
   350.000   300.000  118.1655
   350.000   350.000  136.2731

   375.000  -350.000  139.9568
   375.000  -300.000  119.8088
   375.000  -250.000  101.7955
   375.000  -200.000   85.8300
   375.000  -150.000   72.5544
   375.000  -100.000   64.2558
   375.000   -50.000   59.5781
   375.000     0.000   58.5532
   375.000    50.000   61.1873
   375.000   100.000   67.1530
   375.000   150.000   75.3041
   375.000   200.000   88.1549
   375.000   250.000  103.1747
   375.000   300.000  122.3656
   375.000   350.000  144.1143

   400.000  -350.000  147.8515
   400.000  -300.000  125.1268
   400.000  -250.000  105.6070
   400.000  -200.000   88.4330
   400.000  -150.000   73.5631
   400.000  -100.000   65.1987
   400.000   -50.000   59.8442
   400.000     0.000   58.6482
   400.000    50.000   61.4552
   400.000   100.000   67.3848
   400.000   150.000   76.6168
   400.000   200.000   90.1777
   400.000   250.000  106.8914
   400.000   300.000  127.3202
   400.000   350.000  151.1159

   425.000  -350.000  153.0499
   425.000  -300.000  129.0793
   425.000  -250.000  107.9706
   425.000  -200.000   90.0155
   425.000  -150.000   74.8249
   425.000  -100.000   64.8560
   425.000   -50.000   59.2576
   425.000     0.000   58.4741
   425.000    50.000   61.4088
   425.000   100.000   67.4814
   425.000   150.000   77.2029
   425.000   200.000   91.9615
   425.000   250.000  109.4903
   425.000   300.000  132.1420
   425.000   350.000  157.7623

   450.000  -350.000  159.1157
   450.000  -300.000  133.3570
   450.000  -250.000  110.7438
   450.000  -200.000   91.7427
   450.000  -150.000   75.5896
   450.000  -100.000   66.2083
   450.000   -50.000   59.4950
   450.000     0.000   58.3528
   450.000    50.000   60.6774
   450.000   100.000   67.9059
   450.000   150.000   77.7239
   450.000   200.000   93.2185
   450.000   250.000  112.3194
   450.000   300.000  136.2264
   450.000   350.000  163.0769

   475.000  -350.000  163.9888
   475.000  -300.000  137.3964
   475.000  -250.000  113.4079
   475.000  -200.000   92.6223
   475.000  -150.000   75.8907
   475.000  -100.000   65.2869
   475.000   -50.000   59.0079
   475.000     0.000   57.7477
   475.000    50.000   60.1705
   475.000   100.000   67.2776
   475.000   150.000   77.7216
   475.000   200.000   93.7917
   475.000   250.000  113.7900
   475.000   300.000  138.6464
   475.000   350.000  167.4615

   500.000  -350.000  168.7262
   500.000  -300.000  140.9761
   500.000  -250.000  115.5659
   500.000  -200.000   94.4329
   500.000  -150.000   76.1878
   500.000  -100.000   64.5962
   500.000   -50.000   58.0140
   500.000     0.000   56.3225
   500.000    50.000   59.0024
   500.000   100.000   66.3418
   500.000   150.000   77.1500
   500.000   200.000   94.5421
   500.000   250.000  115.2786
   500.000   300.000  141.3728
   500.000   350.000  170.7336

   525.000  -350.000  173.8113
   525.000  -300.000  143.8956
   525.000  -250.000  117.4266
   525.000  -200.000   94.4899
   525.000  -150.000   76.5516
   525.000  -100.000   64.7108
   525.000   -50.000   58.1137
   525.000     0.000   56.5891
   525.000    50.000   58.6106
   525.000   100.000   66.1884
   525.000   150.000   77.1169
   525.000   200.000   95.2385
   525.000   250.000  116.5375
   525.000   300.000  144.3806
   525.000   350.000  174.2382

   550.000  -350.000  178.3898
   550.000  -300.000  147.7258
   550.000  -250.000  119.8789
   550.000  -200.000   96.1534
   550.000  -150.000   77.3884
   550.000  -100.000   65.4607
   550.000   -50.000   58.2683
   550.000     0.000   56.0942
   550.000    50.000   58.6104
   550.000   100.000   66.3017
   550.000   150.000   77.3721
   550.000   200.000   94.4661
   550.000   250.000  117.4883
   550.000   300.000  145.4750
   550.000   350.000  177.3547

   575.000  -350.000  181.9111
   575.000  -300.000  149.2981
   575.000  -250.000  120.9485
   575.000  -200.000   97.1247
   575.000  -150.000   77.4148
   575.000  -100.000   65.9405
   575.000   -50.000   58.2834
   575.000     0.000   55.5712
   575.000    50.000   58.4391
   575.000   100.000   66.0728
   575.000   150.000   78.0065
   575.000   200.000   95.5061
   575.000   250.000  118.0898
   575.000   300.000  147.1447
   575.000   350.000  179.3328

   600.000  -350.000  182.6113
   600.000  -300.000  149.9947
   600.000  -250.000  120.6567
   600.000  -200.000   95.8325
   600.000  -150.000   75.7556
   600.000  -100.000   63.6241
   600.000   -50.000   55.7204
   600.000     0.000   53.8833
   600.000    50.000   56.3563
   600.000   100.000   64.0575
   600.000   150.000   75.7098
   600.000   200.000   93.7801
   600.000   250.000  116.6479
   600.000   300.000  145.5165
   600.000   350.000  177.7256

   625.000  -350.000  182.8816
   625.000  -300.000  150.0053
   625.000  -250.000  119.8445
   625.000  -200.000   95.0520
   625.000  -150.000   75.2275
   625.000  -100.000   63.0728
   625.000   -50.000   55.3581
   625.000     0.000   53.5198
   625.000    50.000   56.4731
   625.000   100.000   64.0350
   625.000   150.000   74.5851
   625.000   200.000   92.6399
   625.000   250.000  115.2075
   625.000   300.000  143.8839
   625.000   350.000  176.9928

   650.000  -350.000  184.7611
   650.000  -300.000  150.0304
   650.000  -250.000  119.6913
   650.000  -200.000   94.6287
   650.000  -150.000   74.5800
   650.000  -100.000   62.8561
   650.000   -50.000   55.1848
   650.000     0.000   53.1061
   650.000    50.000   56.2323
   650.000   100.000   62.8091
   650.000   150.000   73.7052
   650.000   200.000   90.0881
   650.000   250.000  112.1265
   650.000   300.000  140.8551
   650.000   350.000  176.4463

   675.000  -300.000  147.7171
   675.000  -250.000  117.5885
   675.000  -200.000   93.0425
   675.000  -150.000   73.6224
   675.000  -100.000   61.7717
   675.000   -50.000   54.5482
   675.000     0.000   52.3135
   675.000    50.000   54.7184
   675.000   100.000   61.5715
   675.000   150.000   71.8527
   675.000   200.000   87.6045
   675.000   250.000  109.0316
   675.000   300.000  136.2427

   700.000  -300.000  143.9880
   700.000  -250.000  113.9589
   700.000  -200.000   90.2754
   700.000  -150.000   71.6481
   700.000  -100.000   60.2687
   700.000   -50.000   53.3146
   700.000     0.000   51.5754
   700.000    50.000   54.0385
   700.000   100.000   60.2649
   700.000   150.000   69.9115
   700.000   200.000   85.6049
   700.000   250.000  105.0010
   700.000   300.000  130.5834

   725.000  -300.000  139.0289
   725.000  -250.000  110.1307
   725.000  -200.000   88.1934
   725.000  -150.000   70.6329
   725.000  -100.000   59.5523
   725.000   -50.000   53.2585
   725.000     0.000   51.3218
   725.000    50.000   53.3361
   725.000   100.000   59.5852
   725.000   150.000   68.3084
   725.000   200.000   82.8995
   725.000   250.000  101.2162
   725.000   300.000  125.2470

   750.000  -300.000  131.4092
   750.000  -250.000  104.7098
   750.000  -200.000   84.5315
   750.000  -150.000   67.7519
   750.000  -100.000   59.3018
   750.000   -50.000   53.0665
   750.000     0.000   51.6486
   750.000    50.000   53.0595
   750.000   100.000   58.1809
   750.000   150.000   66.2346
   750.000   200.000   78.6643
   750.000   250.000   95.5493
   750.000   300.000  117.0671

   775.000  -300.000  119.6493
   775.000  -250.000   96.6376
   775.000  -200.000   79.1061
   775.000  -150.000   65.1898
   775.000  -100.000   57.4262
   775.000   -50.000   52.7401
   775.000     0.000   51.0753
   775.000    50.000   52.5711
   775.000   100.000   57.0554
   775.000   150.000   63.6885
   775.000   200.000   75.0437
   775.000   250.000   89.0959
   775.000   300.000  108.9394

   800.000  -300.000  106.6346
   800.000  -250.000   87.5304
   800.000  -200.000   72.7341
   800.000  -150.000   61.7897
   800.000  -100.000   54.9414
   800.000   -50.000   51.0725
   800.000     0.000   50.1706
   800.000    50.000   50.9535
   800.000   100.000   54.6174
   800.000   150.000   59.8713
   800.000   200.000   69.2532
   800.000   250.000   81.2391
   800.000   300.000   99.8052

   825.000  -300.000   93.7925
   825.000  -250.000   77.4594
   825.000  -200.000   66.6607
   825.000  -150.000   57.4352
   825.000  -100.000   52.6710
   825.000   -50.000   50.0364
   825.000     0.000   49.2222
   825.000    50.000   50.5957
   825.000   100.000   53.1255
   825.000   150.000   56.8871
   825.000   200.000   64.0928
   825.000   250.000   73.3111
   825.000   300.000   92.5143

   850.000  -300.000   81.4657
   850.000  -250.000   66.4678
   850.000  -200.000   59.5379
   850.000  -150.000   53.5332
   850.000  -100.000   50.5757
   850.000   -50.000   48.4967
   850.000     0.000   48.5999
   850.000    50.000   49.2049
   850.000   100.000   51.1300
   850.000   150.000   53.4292
   850.000   200.000   58.5030
   850.000   250.000   64.4944
   850.000   300.000   82.2939

   875.000  -250.000   54.5215
   875.000  -200.000   50.7377
   875.000  -150.000   47.7631
   875.000  -100.000   47.0913
   875.000   -50.000   46.4218
   875.000     0.000   46.3697
   875.000    50.000   46.4325
   875.000   100.000   47.6242
   875.000   150.000   47.3397
   875.000   200.000   49.5236
   875.000   250.000   52.2697

   900.000  -250.000   42.8165
   900.000  -200.000   42.7102
   900.000  -150.000   42.9840
   900.000  -100.000   44.4244
   900.000   -50.000   44.4575
   900.000     0.000   45.2845
   900.000    50.000   45.3284
   900.000   100.000   45.2433
   900.000   150.000   43.9894
   900.000   200.000   42.8881
   900.000   250.000   41.8652

   925.000  -250.000   32.0058
   925.000  -200.000   35.5325
   925.000  -150.000   38.0260
   925.000  -100.000   41.4298
   925.000   -50.000   43.1962
   925.000     0.000   44.3299
   925.000    50.000   44.4563
   925.000   100.000   42.8470
   925.000   150.000   38.6486
   925.000   200.000   35.3626
   925.000   250.000   30.6696

   950.000  -250.000   19.8121
   950.000  -200.000   26.8761
   950.000  -150.000   32.3229
   950.000  -100.000   38.2707
   950.000   -50.000   41.2458
   950.000     0.000   43.0241
   950.000    50.000   42.3489
   950.000   100.000   39.4116
   950.000   150.000   34.1737
   950.000   200.000   27.3546
   950.000   250.000   19.5211

   975.000  -250.000    8.6027
   975.000  -200.000   18.2124
   975.000  -150.000   26.5510
   975.000  -100.000   34.4546
   975.000   -50.000   38.3665
   975.000     0.000   40.3028
   975.000    50.000   39.6534
   975.000   100.000   36.3876
   975.000   150.000   29.1630
   975.000   200.000   19.0251
   975.000   250.000    7.7434

  1000.000  -250.000   -2.2114
  1000.000  -200.000    9.8769
  1000.000  -150.000   20.6079
  1000.000  -100.000   30.4905
  1000.000   -50.000   35.7250
  1000.000     0.000   38.6426
  1000.000    50.000   37.5008
  1000.000   100.000   33.1561
  1000.000   150.000   23.8169
  1000.000   200.000   11.5186
  1000.000   250.000   -1.9049

  1025.000  -250.000  -13.2358
  1025.000  -200.000    2.1877
  1025.000  -150.000   16.5331
  1025.000  -100.000   28.0279
  1025.000   -50.000   34.3635
  1025.000     0.000   36.8096
  1025.000    50.000   36.0191
  1025.000   100.000   30.3415
  1025.000   150.000   19.4478
  1025.000   200.000    4.6672
  1025.000   250.000  -12.2645

  1050.000  -250.000  -24.6096
  1050.000  -200.000   -4.9202
  1050.000  -150.000   11.7942
  1050.000  -100.000   24.8088
  1050.000   -50.000   32.1597
  1050.000     0.000   35.2536
  1050.000    50.000   34.0277
  1050.000   100.000   27.2590
  1050.000   150.000   15.0197
  1050.000   200.000   -2.0331
  1050.000   250.000  -21.2908

  1075.000  -250.000  -35.2264
  1075.000  -200.000  -11.2338
  1075.000  -150.000    7.0854
  1075.000  -100.000   21.5386
  1075.000   -50.000   30.2686
  1075.000     0.000   33.4264
  1075.000    50.000   31.5572
  1075.000   100.000   23.9453
  1075.000   150.000   10.3096
  1075.000   200.000   -7.9032
  1075.000   250.000  -29.2086

  1100.000  -200.000  -16.3617
  1100.000  -150.000    2.7229
  1100.000  -100.000   18.2723
  1100.000   -50.000   26.9153
  1100.000     0.000   31.0836
  1100.000    50.000   29.3236
  1100.000   100.000   21.1262
  1100.000   150.000    5.5119
  1100.000   200.000  -14.3661

  1125.000  -200.000  -21.2316
  1125.000  -150.000   -1.6969
  1125.000  -100.000   15.1688
  1125.000   -50.000   24.7405
  1125.000     0.000   28.7840
  1125.000    50.000   26.7472
  1125.000   100.000   17.7329
  1125.000   150.000    1.5577
  1125.000   200.000  -19.5288

  1150.000  -200.000  -25.4105
  1150.000  -150.000   -5.0298
  1150.000  -100.000   12.4088
  1150.000   -50.000   22.5465
  1150.000     0.000   26.9822
  1150.000    50.000   24.6330
  1150.000   100.000   15.8141
  1150.000   150.000   -1.3476
  1150.000   200.000  -23.2275

  1175.000  -200.000  -28.8719
  1175.000  -150.000   -7.3786
  1175.000  -100.000   10.4747
  1175.000   -50.000   21.2812
  1175.000     0.000   25.6887
  1175.000    50.000   23.3836
  1175.000   100.000   13.5603
  1175.000   150.000   -4.1543
  1175.000   200.000  -26.7302

  1200.000  -200.000  -32.8173
  1200.000  -150.000  -10.4434
  1200.000  -100.000    8.0873
  1200.000   -50.000   19.5108
  1200.000     0.000   23.3274
  1200.000    50.000   20.5877
  1200.000   100.000   10.7673
  1200.000   150.000   -7.1611
  1200.000   200.000  -30.1504

  1225.000  -200.000  -37.1191
  1225.000  -150.000  -13.4924
  1225.000  -100.000    5.9500
  1225.000   -50.000   16.8036
  1225.000     0.000   20.9319
  1225.000    50.000   18.7916
  1225.000   100.000    8.4537
  1225.000   150.000   -9.4938
  1225.000   200.000  -33.7303

  1250.000  -200.000  -39.9302
  1250.000  -150.000  -15.7906
  1250.000  -100.000    3.0390
  1250.000   -50.000   14.9203
  1250.000     0.000   19.5003
  1250.000    50.000   16.8435
  1250.000   100.000    6.9521
  1250.000   150.000  -11.6743
  1250.000   200.000  -35.5602

  1275.000  -200.000  -40.1423
  1275.000  -150.000  -16.7891
  1275.000  -100.000    1.3112
  1275.000   -50.000   13.3769
  1275.000     0.000   17.6026
  1275.000    50.000   15.2227
  1275.000   100.000    5.5599
  1275.000   150.000  -13.2257
  1275.000   200.000  -37.3622

  1300.000  -200.000  -38.1352
  1300.000  -150.000  -17.9486
  1300.000  -100.000   -0.3642
  1300.000   -50.000   12.0110
  1300.000     0.000   16.0121
  1300.000    50.000   13.4853
  1300.000   100.000    4.4181
  1300.000   150.000  -14.4756
  1300.000   200.000  -37.9278

  1325.000  -200.000  -37.6465
  1325.000  -150.000  -18.9962
  1325.000  -100.000   -1.1049
  1325.000   -50.000   10.8584
  1325.000     0.000   15.2644
  1325.000    50.000   12.6751
  1325.000   100.000    3.3047
  1325.000   150.000  -14.1046
  1325.000   200.000  -37.2081

  1350.000  -200.000  -40.7779
  1350.000  -150.000  -19.6931
  1350.000  -100.000   -1.7140
  1350.000   -50.000    9.8386
  1350.000     0.000   14.4323
  1350.000    50.000   11.7949
  1350.000   100.000    2.3762
  1350.000   150.000  -14.1800
  1350.000   200.000  -35.5585

  1375.000  -200.000  -44.6430
  1375.000  -150.000  -20.2439
  1375.000  -100.000   -2.2211
  1375.000   -50.000    8.3201
  1375.000     0.000   12.6097
  1375.000    50.000   10.5305
  1375.000   100.000    1.8799
  1375.000   150.000  -13.8018
  1375.000   200.000  -33.6467

  1400.000  -200.000  -45.8330
  1400.000  -150.000  -20.1445
  1400.000  -100.000   -2.3674
  1400.000   -50.000    8.4220
  1400.000     0.000   12.3187
  1400.000    50.000    9.9233
  1400.000   100.000    2.0984
  1400.000   150.000  -12.7097
  1400.000   200.000  -32.1643

  1425.000  -200.000  -42.5434
  1425.000  -150.000  -20.2079
  1425.000  -100.000   -3.0876
  1425.000   -50.000    6.6354
  1425.000     0.000   10.4573
  1425.000    50.000    8.3983
  1425.000   100.000    0.9578
  1425.000   150.000  -13.5269
  1425.000   200.000  -31.6780

  1450.000  -200.000  -36.1516
  1450.000  -150.000  -19.1706
  1450.000  -100.000   -3.8706
  1450.000   -50.000    5.7542
  1450.000     0.000    9.5024
  1450.000    50.000    7.9157
  1450.000   100.000    0.8968
  1450.000   150.000  -13.1687
  1450.000   200.000  -29.7011

  1475.000  -200.000  -32.0409
  1475.000  -150.000  -17.8837
  1475.000  -100.000   -4.0682
  1475.000   -50.000    4.9018
  1475.000     0.000    9.0678
  1475.000    50.000    7.1716
  1475.000   100.000    0.7211
  1475.000   150.000  -12.3016
  1475.000   200.000  -27.7557

  1500.000  -200.000  -29.7396
  1500.000  -150.000  -16.3134
  1500.000  -100.000   -3.3197
  1500.000   -50.000    4.5456
  1500.000     0.000    8.3375
  1500.000    50.000    6.6283
  1500.000   100.000    0.6583
  1500.000   150.000  -11.1108
  1500.000   200.000  -25.2137

  1525.000  -200.000  -28.5537
  1525.000  -150.000  -15.6016
  1525.000  -100.000   -2.9012
  1525.000   -50.000    4.4053
  1525.000     0.000    7.8415
  1525.000    50.000    6.1982
  1525.000   100.000    0.8422
  1525.000   150.000   -9.9909
  1525.000   200.000  -22.3629

  1550.000  -200.000  -26.0368
  1550.000  -150.000  -14.1824
  1550.000  -100.000   -2.9565
  1550.000   -50.000    4.6020
  1550.000     0.000    6.9998
  1550.000    50.000    6.1134
  1550.000   100.000    0.4660
  1550.000   150.000   -9.6667
  1550.000   200.000  -20.4562

  1575.000  -200.000  -22.9449
  1575.000  -150.000  -13.1902
  1575.000  -100.000   -3.0494
  1575.000   -50.000    3.3573
  1575.000     0.000    6.6075
  1575.000    50.000    5.4851
  1575.000   100.000    0.2278
  1575.000   150.000   -9.0640
  1575.000   200.000  -19.7733

  1600.000  -200.000  -19.3013
  1600.000  -150.000  -11.9003
  1600.000  -100.000   -2.5521
  1600.000   -50.000    3.9700
  1600.000     0.000    5.9909
  1600.000    50.000    5.5105
  1600.000   100.000    1.0351
  1600.000   150.000   -8.0040
  1600.000   200.000  -18.9549

  1625.000  -200.000  -17.8652
  1625.000  -150.000  -10.9045
  1625.000  -100.000   -2.6659
  1625.000   -50.000    2.6586
  1625.000     0.000    5.4171
  1625.000    50.000    4.3355
  1625.000   100.000   -0.5360
  1625.000   150.000   -9.6415
  1625.000   200.000  -21.0290

  1650.000  -200.000  -19.4784
  1650.000  -150.000  -10.9148
  1650.000  -100.000   -3.0089
  1650.000   -50.000    2.3800
  1650.000     0.000    4.6634
  1650.000    50.000    4.3511
  1650.000   100.000   -0.2702
  1650.000   150.000   -8.6611
  1650.000   200.000  -18.5290

  1675.000  -200.000  -17.7314
  1675.000  -150.000  -10.4422
  1675.000  -100.000   -2.4777
  1675.000   -50.000    2.7645
  1675.000     0.000    5.3963
  1675.000    50.000    4.5171
  1675.000   100.000    0.5479
  1675.000   150.000   -7.8744
  1675.000   200.000  -19.2713

  1700.000  -200.000  -17.6000
  1700.000  -150.000  -10.7137
  1700.000  -100.000   -2.4928
  1700.000   -50.000    2.6417
  1700.000     0.000    5.0341
  1700.000    50.000    4.2447
  1700.000   100.000    0.2278
  1700.000   150.000   -6.8284
  1700.000   200.000  -18.8360

  1725.000  -200.000  -17.7701
  1725.000  -150.000   -9.8264
  1725.000  -100.000   -2.6565
  1725.000   -50.000    1.7992
  1725.000     0.000    4.0057
  1725.000    50.000    3.6123
  1725.000   100.000    0.9783
  1725.000   150.000   -5.6703
  1725.000   200.000  -14.3819

  1750.000  -200.000  -17.6661
  1750.000  -150.000   -9.3391
  1750.000  -100.000   -1.4279
  1750.000   -50.000    2.5522
  1750.000     0.000    5.0313
  1750.000    50.000    4.5136
  1750.000   100.000    1.6113
  1750.000   150.000   -3.6021
  1750.000   200.000   -7.1165

  1775.000  -200.000  -15.4328
  1775.000  -150.000   -8.4472
  1775.000  -100.000   -0.8741
  1775.000   -50.000    2.6140
  1775.000     0.000    4.5787
  1775.000    50.000    4.3796
  1775.000   100.000    2.1570
  1775.000   150.000   -1.9914
  1775.000   200.000   -2.9466

  1800.000  -200.000  -13.7845
  1800.000  -150.000   -8.3592
  1800.000  -100.000   -1.8817
  1800.000   -50.000    2.2694
  1800.000     0.000    4.8347
  1800.000    50.000    4.6940
  1800.000   100.000    2.6363
  1800.000   150.000   -0.4424
  1800.000   200.000   -1.8508

  1825.000  -200.000   -9.9223
  1825.000  -150.000   -6.8987
  1825.000  -100.000   -0.9508
  1825.000   -50.000    2.7189
  1825.000     0.000    4.9618
  1825.000    50.000    4.9546
  1825.000   100.000    2.7915
  1825.000   150.000    0.3026
  1825.000   200.000    0.5138

  1850.000  -200.000   -5.6299
  1850.000  -150.000   -5.1403
  1850.000  -100.000   -0.1023
  1850.000   -50.000    2.9413
  1850.000     0.000    4.7830
  1850.000    50.000    5.2087
  1850.000   100.000    3.7752
  1850.000   150.000    1.2133
  1850.000   200.000   -0.4941

  1875.000  -200.000   -3.7330
  1875.000  -150.000   -4.0230
  1875.000  -100.000   -0.2619
  1875.000   -50.000    2.6013
  1875.000     0.000    5.0496
  1875.000    50.000    5.3166
  1875.000   100.000    4.5402
  1875.000   150.000    1.6471
  1875.000   200.000   -2.7065

  1900.000  -200.000   -1.7698
  1900.000  -150.000   -2.7191
  1900.000  -100.000    0.6367
  1900.000   -50.000    3.6945
  1900.000     0.000    5.0371
  1900.000    50.000    5.2811
  1900.000   100.000    4.3042
  1900.000   150.000    2.0104
  1900.000   200.000    0.7867

  1925.000  -200.000   -0.4046
  1925.000  -150.000   -1.6719
  1925.000  -100.000    0.8650
  1925.000   -50.000    3.3273
  1925.000     0.000    5.0557
  1925.000    50.000    5.1539
  1925.000   100.000    4.9815
  1925.000   150.000    2.9958
  1925.000   200.000    4.3281

  1950.000  -200.000   -2.8164
  1950.000  -150.000   -2.3508
  1950.000  -100.000    0.9059
  1950.000   -50.000    3.5676
  1950.000     0.000    5.0465
  1950.000    50.000    4.9747
  1950.000   100.000    5.0606
  1950.000   150.000    4.3006
  1950.000   200.000    6.0628

  1975.000  -200.000   -2.7548
  1975.000  -150.000   -1.0689
  1975.000  -100.000    1.8474
  1975.000   -50.000    3.7552
  1975.000     0.000    4.2174
  1975.000    50.000    5.2026
  1975.000   100.000    4.4117
  1975.000   150.000    3.8832
  1975.000   200.000    6.0869

  2000.000  -200.000   -4.2390
  2000.000  -150.000   -2.2271
  2000.000  -100.000    0.2165
  2000.000   -50.000    1.3910
  2000.000     0.000    2.9846
  2000.000    50.000    3.2596
  2000.000   100.000    3.0364
  2000.000   150.000    2.8044
  2000.000   200.000    5.1261

  2025.000  -200.000    0.0728
  2025.000  -150.000   -0.6708
  2025.000  -100.000    0.8846
  2025.000   -50.000    1.4039
  2025.000     0.000    2.0643
  2025.000    50.000    2.0421
  2025.000   100.000    1.5571
  2025.000   150.000    1.3233
  2025.000   200.000    3.9191

  2050.000  -200.000    6.2506
  2050.000  -150.000    1.1567
  2050.000  -100.000    0.9806
  2050.000   -50.000    1.7818
  2050.000     0.000    2.1590
  2050.000    50.000    2.4437
  2050.000   100.000    1.7861
  2050.000   150.000    2.1086
  2050.000   200.000    6.3399

  2075.000  -200.000    8.9565
  2075.000  -150.000    1.8573
  2075.000  -100.000    1.2957
  2075.000   -50.000    2.1474
  2075.000     0.000    2.3310
  2075.000    50.000    2.5445
  2075.000   100.000    1.8811
  2075.000   150.000    1.4170
  2075.000   200.000    5.5524

  2100.000  -200.000    7.7522
  2100.000  -150.000    1.4304
  2100.000  -100.000    0.8589
  2100.000   -50.000    1.2402
  2100.000     0.000    1.4065
  2100.000    50.000    0.7398
  2100.000   100.000    0.8147
  2100.000   150.000   -0.0761
  2100.000   200.000    1.5567

  2125.000  -200.000    4.5460
  2125.000  -150.000    0.8937
  2125.000  -100.000    0.4737
  2125.000   -50.000    1.4310
  2125.000     0.000    1.2862
  2125.000    50.000    1.2085
  2125.000   100.000    0.6953
  2125.000   150.000   -0.3525
  2125.000   200.000   -1.5422

  2150.000  -200.000    1.7800
  2150.000  -150.000   -0.0516
  2150.000  -100.000   -0.1607
  2150.000   -50.000    0.8121
  2150.000     0.000    0.6190
  2150.000    50.000    0.6484
  2150.000   100.000   -0.1128
  2150.000   150.000   -0.7528
  2150.000   200.000   -0.2246

  2175.000  -200.000    0.5918
  2175.000  -150.000   -1.3440
  2175.000  -100.000   -0.2545
  2175.000   -50.000    0.7610
  2175.000     0.000    0.5864
  2175.000    50.000    0.1559
  2175.000   100.000   -0.2382
  2175.000   150.000   -1.2911
  2175.000   200.000   -0.0284

  2200.000  -200.000   -0.9966
  2200.000  -150.000   -2.7736
  2200.000  -100.000   -1.6743
  2200.000   -50.000   -1.5008
  2200.000     0.000   -0.8340
  2200.000    50.000   -0.5578
  2200.000   100.000   -1.2536
  2200.000   150.000   -2.8661
  2200.000   200.000   -0.8184

  2225.000  -200.000   -1.3657
  2225.000  -150.000   -3.5563
  2225.000  -100.000   -2.1079
  2225.000   -50.000   -1.2257
  2225.000     0.000   -0.5161
  2225.000    50.000   -0.8201
  2225.000   100.000   -1.8098
  2225.000   150.000   -3.9307
  2225.000   200.000   -0.2540

  2250.000  -200.000   -1.7749
  2250.000  -150.000   -3.6902
  2250.000  -100.000   -2.7382
  2250.000   -50.000   -1.6250
  2250.000     0.000   -1.5375
  2250.000    50.000   -2.1755
  2250.000   100.000   -2.6716
  2250.000   150.000   -4.1124
  2250.000   200.000   -1.1003

  2275.000  -200.000   -1.7893
  2275.000  -150.000   -4.7187
  2275.000  -100.000   -3.2866
  2275.000   -50.000   -2.0878
  2275.000     0.000   -1.7317
  2275.000    50.000   -1.8153
  2275.000   100.000   -2.9515
  2275.000   150.000   -4.5825
  2275.000   200.000   -4.2521

  2300.000  -200.000   -0.6131
  2300.000  -150.000   -4.3944
  2300.000  -100.000   -4.0537
  2300.000   -50.000   -2.4906
  2300.000     0.000   -2.6254
  2300.000    50.000   -2.3201
  2300.000   100.000   -3.2876
  2300.000   150.000   -4.6533
  2300.000   200.000   -3.7471

  2325.000  -200.000   -0.3745
  2325.000  -150.000   -4.4690
  2325.000  -100.000   -3.7309
  2325.000   -50.000   -2.9823
  2325.000     0.000   -2.4170
  2325.000    50.000   -3.1469
  2325.000   100.000   -3.6497
  2325.000   150.000   -5.4755
  2325.000   200.000   -3.1654

  2350.000  -200.000   -0.4973
  2350.000  -150.000   -5.1731
  2350.000  -100.000   -4.3101
  2350.000   -50.000   -3.4984
  2350.000     0.000   -2.6978
  2350.000    50.000   -2.4275
  2350.000   100.000   -3.0356
  2350.000   150.000   -4.9099
  2350.000   200.000   -1.4232

  2375.000  -200.000   -1.5524
  2375.000  -150.000   -4.6463
  2375.000  -100.000   -3.2625
  2375.000   -50.000   -2.8481
  2375.000     0.000   -2.2826
  2375.000    50.000   -2.8588
  2375.000   100.000   -3.7482
  2375.000   150.000   -5.2591
  2375.000   200.000   -1.7891

  2400.000  -200.000   -0.3638
  2400.000  -150.000   -5.2159
  2400.000  -100.000   -3.7652
  2400.000   -50.000   -2.4956
  2400.000     0.000   -1.9621
  2400.000    50.000   -1.7894
  2400.000   100.000   -2.9568
  2400.000   150.000   -4.4992
  2400.000   200.000   -1.7011

  2425.000  -200.000   -2.1604
  2425.000  -150.000   -5.5310
  2425.000  -100.000   -3.6979
  2425.000   -50.000   -2.1265
  2425.000     0.000   -1.0363
  2425.000    50.000   -1.2703
  2425.000   100.000   -2.4161
  2425.000   150.000   -3.6393
  2425.000   200.000   -2.0700

  2450.000  -200.000  -10.5067
  2450.000  -150.000   -4.7730
  2450.000  -100.000   -2.7206
  2450.000   -50.000   -1.5142
  2450.000     0.000   -0.5206
  2450.000    50.000   -0.2441
  2450.000   100.000   -1.6017
  2450.000   150.000   -2.8242
  2450.000   200.000   -4.5595

  2475.000  -200.000   -8.8723
  2475.000  -150.000   -3.5731
  2475.000  -100.000   -2.3575
  2475.000   -50.000   -1.2706
  2475.000     0.000   -0.3940
  2475.000    50.000   -0.3174
  2475.000   100.000   -0.7278
  2475.000   150.000   -1.4974
  2475.000   200.000   -1.8144

  2500.000  -200.000   -3.5820
  2500.000  -150.000   -1.9658
  2500.000  -100.000   -1.2217
  2500.000   -50.000   -0.5209
  2500.000     0.000    0.4913
  2500.000    50.000    1.2066
  2500.000   100.000    0.7492
  2500.000   150.000    1.3199
  2500.000   200.000    1.2345

