 Filename:   3DC_P3S_01.DAT      

 3D converging nozzle (3Dc)
 Mean velocity 
 3-hole probe 

 Dinamic pressure                 999.73 Pa
 Acquisition time                   3.00 s
 Acquisition frequency            10000. Hz
 Number of samples                 30000
 Barometric pressure               967.5 mbar
 Air temperature (start)            27.9 C   
 Re 1m /10.E6                     2.5483
 Air density (start)              1.1147 kg/m**3 
 Air kin. viscosity (start)  0.16620E-04 m**2/s

 Date            20-JUL-90
 Time            09:50:39

*****************************************************

 x [mm] =     0.00

 z [mm] =  -200.00

 temperature   [C] =     28.6

 density [kg/m**3] =  1.11158

 y [mm]   Q  [m/s]  yaw[deg]  

  80.000   42.4192    0.3856
  70.000   42.4236    0.3723
  60.000   42.4492    0.4148
  55.000   42.4409    0.4349
  52.000   42.4672    0.3961
  50.000   42.4655    0.3905
  48.000   42.4620    0.3767
  46.000   42.4876    0.3874
  44.000   42.4629    0.3776
  42.000   42.4965    0.3949
  40.000   42.4698    0.3486
  38.000   42.4706    0.3752
  36.000   42.4711    0.3661
  34.000   42.4968    0.3833
  32.000   42.4841    0.3930
  30.000   42.5006    0.3729
  28.000   42.4766    0.3921
  26.000   42.4734    0.3730
  24.000   42.4974    0.3639
  22.000   42.4976    0.3451
  20.000   42.4815    0.3748
  19.000   42.4358    0.3838
  18.000   42.3976    0.3251
  17.000   42.2789    0.3361
  16.000   42.0953    0.2633
  15.000   41.7698    0.2950
  14.000   41.4461    0.2420
  13.000   40.9841    0.2509
  12.000   40.3396    0.1691
  11.000   39.6590    0.1190
  10.000   38.9888    0.0707
   9.000   38.1938    0.0104
   8.000   37.2705   -0.0113
   7.000   36.3832   -0.0505
   6.000   35.3893   -0.0586
   5.000   34.1946   -0.0698
   4.500   33.6344   -0.0840
   4.000   33.0241   -0.0303
   3.500   32.1733   -0.1022
   3.000   31.5529   -0.1288
   2.500   30.6388   -0.0752
   2.000   29.8225    0.0519
   1.500   28.6028    0.0682
   1.000   27.0655   -0.1175
   0.800   26.2079   -0.0200
   0.650   25.5415   -0.0226
   0.500   24.7894    0.1274
   0.350   23.4998    0.0885
   0.250   21.8600    0.3925

*****************************************************

 x [mm] =   250.00

 z [mm] =  -200.00

 temperature   [C] =     30.3

 density [kg/m**3] =  1.10474

 y [mm]   Q  [m/s]  yaw[deg]  

  80.000   42.4409    1.1579
  70.000   42.4644    1.1433
  60.000   42.4375    1.1314
  55.000   42.4361    1.1771
  52.000   42.4852    1.1454
  50.000   42.4672    1.1415
  48.000   42.4544    1.1554
  46.000   42.4590    1.1435
  44.000   42.4955    1.1334
  42.000   42.4835    1.1228
  40.000   42.5190    1.0904
  38.000   42.5158    1.0940
  36.000   42.5171    1.1376
  34.000   42.5240    1.1088
  32.000   42.4691    1.1314
  30.000   42.4857    1.1336
  28.000   42.4552    1.1675
  26.000   42.4599    1.1222
  24.000   42.4436    1.1192
  22.000   42.4260    1.1010
  20.000   42.2405    1.0969
  19.000   42.1335    1.1416
  18.000   41.8778    1.0801
  17.000   41.4917    1.1024
  16.000   41.1476    1.0313
  15.000   40.6416    1.0813
  14.000   40.1353    0.9964
  13.000   39.5553    1.0732
  12.000   38.8324    1.0311
  11.000   38.1731    1.0916
  10.000   37.4430    1.0087
   9.000   36.6760    1.0290
   8.000   35.9084    1.0756
   7.000   35.0337    1.1769
   6.000   34.1160    1.1927
   5.000   32.9460    1.3494
   4.500   32.4687    1.3070
   4.000   31.8615    1.3713
   3.500   31.2824    1.3005
   3.000   30.5884    1.3950
   2.500   29.8363    1.5484
   2.000   28.9106    1.5671
   1.500   27.7559    1.7725
   1.000   26.1843    1.5870
   0.800   25.4246    1.6428
   0.650   24.8315    1.6417
   0.500   23.9500    1.9746
   0.350   22.6324    1.9777
   0.250   21.0376    1.9612

*****************************************************

 x [mm] =   500.00

 z [mm] =  -200.00

 temperature   [C] =     30.7

 density [kg/m**3] =  1.10308

 y [mm]   Q  [m/s]  yaw[deg]  

  80.000   42.1037    3.3075
  70.000   42.0846    3.3059
  60.000   42.0810    3.2875
  55.000   42.1139    3.3136
  52.000   42.1131    3.2800
  50.000   42.1270    3.3004
  48.000   42.1033    3.2509
  46.000   42.1238    3.2537
  44.000   42.1399    3.2715
  42.000   42.1368    3.2719
  40.000   42.0855    3.2627
  38.000   42.1291    3.2798
  36.000   42.1429    3.2720
  34.000   42.1042    3.2642
  32.000   42.1096    3.3039
  30.000   42.1043    3.2731
  28.000   42.1138    3.2873
  26.000   42.0517    3.2573
  24.000   41.9007    3.2790
  22.000   41.5469    3.3121
  20.000   40.9721    3.3884
  19.000   40.5761    3.4417
  18.000   40.1732    3.4260
  17.000   39.7219    3.5385
  16.000   39.2885    3.5694
  15.000   38.7266    3.6532
  14.000   38.2107    3.6982
  13.000   37.5722    3.8071
  12.000   37.0229    3.8817
  11.000   36.4028    3.9444
  10.000   35.5863    4.1153
   9.000   34.9019    4.4526
   8.000   34.2057    4.5004
   7.000   33.2612    4.8170
   6.000   32.4715    4.9354
   5.000   31.4830    5.1506
   4.500   30.9818    5.3402
   4.000   30.4019    5.3868
   3.500   29.7682    5.6297
   3.000   29.1993    5.7328
   2.500   28.4821    5.8919
   2.000   27.5932    6.2173
   1.500   26.5510    6.2247
   1.000   25.1062    6.3263
   0.800   24.3570    6.4291
   0.650   23.8759    6.5593
   0.500   22.8394    6.8029
   0.350   21.7178    6.5639
   0.250   19.9451    6.7320

*****************************************************

 x [mm] =   750.00

 z [mm] =  -200.00

 temperature   [C] =     30.9

 density [kg/m**3] =  1.10190

 y [mm]   Q  [m/s]  yaw[deg]  

  80.000   42.3876    6.8933
  70.000   42.4043    6.8700
  60.000   42.4280    6.8161
  55.000   42.4173    6.8079
  52.000   42.4485    6.7999
  50.000   42.4192    6.7517
  48.000   42.4285    6.7622
  46.000   42.4358    6.7806
  44.000   42.4206    6.7671
  42.000   42.4346    6.7388
  40.000   42.4266    6.7769
  38.000   42.4576    6.7511
  36.000   42.4342    6.7286
  34.000   42.4219    6.7120
  32.000   42.3502    6.7282
  30.000   42.0997    6.7417
  28.000   41.8105    6.8283
  26.000   41.2888    6.9517
  24.000   40.6844    7.1048
  22.000   39.9649    7.2926
  20.000   39.1302    7.5884
  19.000   38.6427    7.8198
  18.000   38.2751    7.9397
  17.000   37.8393    8.1635
  16.000   37.2929    8.3271
  15.000   36.7350    8.5657
  14.000   36.3003    8.7681
  13.000   35.7410    9.0904
  12.000   35.2505    9.3290
  11.000   34.6604    9.6381
  10.000   33.9289   10.0755
   9.000   33.3850   10.5172
   8.000   32.6589   10.8440
   7.000   32.0175   11.1077
   6.000   31.3327   11.4078
   5.000   30.5358   12.3254
   4.500   30.1451   12.4944
   4.000   29.6399   12.7590
   3.500   29.1052   13.1504
   3.000   28.5607   13.1751
   2.500   27.8209   13.5590
   2.000   27.0081   13.5522
   1.500   25.7842   13.8836
   1.000   24.4342   14.0768
   0.800   23.6666   14.2499
   0.650   23.1154   14.2657
   0.500   22.2705   14.2419
   0.350   21.0213   14.0209
   0.250   19.4013   14.0910

